# X109928 calibration file, created 2018-04-03 14:15:06.201854
# Temperature	Resistance
# 		[K]				[Ohms]
# 
1.09556000e-01 9.68779800e+03
1.09556000e-01 9.68779800e+03
1.09556000e-01 9.68779800e+03
1.09556000e-01 9.68779800e+03
1.09556000e-01 9.68779800e+03
1.09556000e-01 9.68779800e+03
1.09556000e-01 9.68779800e+03
1.09556000e-01 9.68779800e+03
1.09556000e-01 9.68779800e+03
1.09556000e-01 9.68779800e+03
1.09556000e-01 9.68779800e+03
1.09556000e-01 9.68779800e+03
1.09556000e-01 9.68779800e+03
1.09556000e-01 9.68779800e+03
1.09556000e-01 9.68779800e+03
1.09556000e-01 9.68779800e+03
1.09556000e-01 9.68779800e+03
1.09556000e-01 9.68779800e+03
1.09556000e-01 9.68779800e+03
1.09556000e-01 9.68779800e+03
1.09556000e-01 9.68779800e+03
1.09556000e-01 9.68779800e+03
1.09556000e-01 9.68779800e+03
1.09556000e-01 9.68779800e+03
1.09556000e-01 9.68779800e+03
1.09556000e-01 9.68779800e+03
1.09556000e-01 9.68779800e+03
1.09556000e-01 9.68779800e+03
1.09556000e-01 9.68779800e+03
1.09556000e-01 9.68779800e+03
1.09556000e-01 9.68779800e+03
1.09556000e-01 9.68779800e+03
1.09556000e-01 9.68779800e+03
1.09556000e-01 9.68779800e+03
1.09556000e-01 9.68779800e+03
1.09556000e-01 9.68779800e+03
1.09556000e-01 9.68779800e+03
1.09556000e-01 9.68779800e+03
1.09556000e-01 9.68779800e+03
1.09556000e-01 9.68779800e+03
1.09556000e-01 9.68779800e+03
1.09556000e-01 9.68779800e+03
1.09556000e-01 9.68779800e+03
1.09556000e-01 9.68779800e+03
1.09556000e-01 9.68779800e+03
1.09556000e-01 9.68779800e+03
1.09556000e-01 9.68779800e+03
1.09556000e-01 9.68779800e+03
1.09556000e-01 9.68779800e+03
1.09556000e-01 9.68779800e+03
1.09556000e-01 9.68779800e+03
1.09556000e-01 9.68779800e+03
1.19133000e-01 7.51679100e+03
1.19133000e-01 7.46436600e+03
1.23999000e-01 7.02105600e+03
1.31632000e-01 7.02105600e+03
1.31858000e-01 6.18896100e+03
1.39445000e-01 5.99158000e+03
1.40841000e-01 5.63716700e+03
1.50845000e-01 5.02924900e+03
1.56025000e-01 4.66589800e+03
1.56025000e-01 4.66589800e+03
1.64873000e-01 4.37548600e+03
1.70880000e-01 4.07660400e+03
1.75133000e-01 3.97924000e+03
1.80062000e-01 3.80000100e+03
1.85012000e-01 3.61908100e+03
1.89620000e-01 3.45748300e+03
1.95671000e-01 3.28903500e+03
2.00437000e-01 3.15789300e+03
2.19828000e-01 2.73798100e+03
2.40569000e-01 2.37852200e+03
2.59244000e-01 2.14374000e+03
2.80130000e-01 1.93522500e+03
3.00573000e-01 1.76659400e+03
3.19841000e-01 1.64167800e+03
3.39932000e-01 1.51287700e+03
3.59988000e-01 1.41923000e+03
3.79679000e-01 1.33862200e+03
4.04364000e-01 1.24989100e+03
4.22256000e-01 1.18875600e+03
4.41998000e-01 1.13672600e+03
4.61525000e-01 1.08882900e+03
4.81929000e-01 1.03918300e+03
5.03785000e-01 9.92672500e+02
5.34062000e-01 9.38220600e+02
5.67035000e-01 8.89682900e+02
5.95381000e-01 8.50038100e+02
6.27083000e-01 8.11487200e+02
6.58282000e-01 7.74444300e+02
6.95274000e-01 7.39700000e+02
7.33180000e-01 7.08974400e+02
7.64325000e-01 6.84054600e+02
7.98295000e-01 6.60056000e+02
8.41829000e-01 6.29649000e+02
8.82778000e-01 6.10410700e+02
9.26806000e-01 5.82186400e+02
9.60863000e-01 5.72196800e+02
9.94273000e-01 5.54223000e+02
1.03497000e+00 5.38938100e+02
1.09509000e+00 5.21735000e+02
1.14359000e+00 5.08565000e+02
1.18303000e+00 4.71467400e+02
1.18303000e+00 4.71467400e+02
1.33202000e+00 4.49749000e+02
1.43101000e+00 4.25141900e+02
1.58738000e+00 3.94666400e+02
1.58738000e+00 3.94666400e+02
1.78642000e+00 3.63226200e+02
1.95407000e+00 3.55054000e+02
2.07736000e+00 3.28414000e+02
2.14068000e+00 2.28856700e+02
2.14068000e+00 2.28856700e+02
2.14068000e+00 2.28856700e+02
2.14068000e+00 2.28856700e+02
2.14068000e+00 2.28856700e+02
2.14068000e+00 2.28856700e+02
2.14068000e+00 2.28856700e+02
2.14068000e+00 2.28856700e+02
2.14068000e+00 2.28856700e+02
2.14068000e+00 2.28856700e+02
2.14068000e+00 2.28856700e+02
2.14068000e+00 2.28856700e+02
2.14068000e+00 2.28856700e+02
2.14068000e+00 2.28856700e+02
7.14412000e+00 1.79764100e+02
7.14412000e+00 1.79764100e+02
7.14412000e+00 1.79764100e+02
7.14412000e+00 1.79764100e+02
7.14412000e+00 1.79764100e+02
7.14412000e+00 1.79764100e+02
7.14412000e+00 1.79764100e+02
7.14412000e+00 1.79764100e+02
8.35084000e+00 1.64123800e+02
8.35084000e+00 1.64123800e+02
8.35084000e+00 1.64123800e+02
8.35084000e+00 1.64123800e+02
1.03195000e+01 1.55278900e+02
1.03195000e+01 1.55278900e+02
1.03195000e+01 1.55278900e+02
1.03195000e+01 1.55278900e+02
1.13898000e+01 1.48108000e+02
1.13898000e+01 1.48108000e+02
1.13898000e+01 1.48108000e+02
1.33541000e+01 1.42871900e+02
1.33541000e+01 1.42871900e+02
1.41429000e+01 1.38701200e+02
1.41429000e+01 1.38701200e+02
1.49709000e+01 1.35179200e+02
1.63430000e+01 1.31324600e+02
1.63430000e+01 1.31324600e+02
1.69809000e+01 1.28996800e+02
1.81233000e+01 1.27315200e+02
1.85790000e+01 1.25564500e+02
1.90663000e+01 1.24431400e+02
1.98632000e+01 1.22879200e+02
2.10544000e+01 1.20208900e+02
2.20641000e+01 1.18492600e+02
2.29093000e+01 1.16220300e+02
2.47483000e+01 1.13130800e+02
2.60165000e+01 1.11378700e+02
2.73377000e+01 1.09014100e+02
2.90182000e+01 1.06357300e+02
3.01478000e+01 1.04598200e+02
3.17188000e+01 1.02484900e+02
3.31848000e+01 1.00609000e+02
3.48495000e+01 9.86457700e+01
3.64161000e+01 9.65081400e+01
3.81295000e+01 9.45913600e+01
4.01125000e+01 9.28368500e+01
4.19679000e+01 9.09254100e+01
4.37478000e+01 8.93814200e+01
4.54765000e+01 8.76108000e+01
4.72586000e+01 8.62401500e+01
4.89681000e+01 8.46722500e+01
5.10917000e+01 8.29276700e+01
5.28088000e+01 8.15504700e+01
5.51610000e+01 8.00217800e+01
5.67588000e+01 7.88313900e+01
5.87858000e+01 7.72508300e+01
6.11110000e+01 7.59609000e+01
6.29912000e+01 7.47360200e+01
6.50000000e+01 7.34015400e+01
6.70957000e+01 7.23044700e+01
6.91446000e+01 7.11845300e+01
7.15821000e+01 6.97112800e+01
7.38538000e+01 6.84391900e+01
7.66476000e+01 6.71159800e+01
7.89757000e+01 6.58514500e+01
8.17520000e+01 6.45505900e+01
8.39553000e+01 6.32747000e+01
8.64982000e+01 6.21277900e+01
8.89283000e+01 6.11844200e+01
9.15360000e+01 6.00271000e+01
9.39710000e+01 5.89180400e+01
9.63089000e+01 5.79293700e+01
9.71452000e+01 5.76826000e+01
